Part protocol
Network name;Part_Maxymos_2_MP-001_2017-03-14_14-32-53_RMS_bl_trans150obr_tepy_036_OK.csv
Protocol version;3.01.00






Result information
Date;2017/03/14
Time;14:32:53
Cycle number;36
Total result;OK
Triggered switch signals
Part serial number;RMS_bl_trans150obr_tepy_036
Measuring program name;Bl_trans
Measuring program number;1
Zero X offset;0.000;mm
Tara Y offset;0.0000;RMS









Process values - curve related
Block X;12.000;mm;XMIN-X;7.667;mm
Block Y;0.0248;RMS;XMIN-Y;0.0327;RMS
Ref X;-;mm;XMAX-X;12.000;mm
Peak-peak X;4.333;mm;XMAX-Y;0.0248;RMS
Peak-peak Y;0.6125;RMS;YMIN-X;11.678;mm
;;;YMIN-Y;0.0207;RMS
;;;YMAX-X;8.486;mm
;;;YMAX-Y;0.6332;RMS

Process values - EO related;Result;Entry;Exit;XMIN-X;XMIN-Y;XMAX-X;XMAX-Y;YMIN-Y;YMIN-X;YMAX-Y;YMAX-X;Calculated result;NOK cause;Violation X;Violation Y;Ref X;Ref Y;Switch force;Y-Diff;X-Diff;Force deviation ratio;Click ratio;Contact edge
;;;;mm;RMS;mm;RMS;RMS;mm;RMS;mm;-;-;-;-;-;-;-;-;-;-;-;-;
EO-01;OK;8.221;;;;;;;;;;;;;;;;
EO-02;OK;;;;;;;;;;;0.2642;;;;;;
EO-03;OK;;;;;;;;;;;0.6125;;;;;;
EO-04;None;
EO-05;None;
EO-06;None;
EO-07;None;
EO-08;None;
EO-09;None;
EO-10;None;


















Evaluation objects settings;Reaction;X reference;Y-Reference;XMin;XMax;YMin;YMax;Entry;Exit;Curve part;Catch zone X;Catch zone Y;EO Name;EO description;Re-entry ignored;Generate statistics;X-Hysteresis;Y-Hysteresis;Down sampling rate;Calc limit min;Calc limit max;Grad limit min;Grad limit max;Hyst limit min;Hyst limit max;Speed limit min;Speed limit max;Time limit min;Time limit max;Is curve inside box;GetRef type;CalcInput1 | dx;CalcInput2 | dx;Calc operation;Average limit min;Average limit max;Break max bending;Visualization offset X;Visualization offset Y;-;-;-
EO-01;LINE-X;ABSOLUTE;ABSOLUTE;8.037;8.473;0.1000;;BELOW;NONE;ANY;+50%;+0%;;;FALSE;TRUE;0.0;0.0;1;;;;;;;;;;;;;;;;;;;0.000;0.0000;;;
EO-02;CALC;ABSOLUTE;ABSOLUTE;-0.409;;1.5166;;NONE;NONE;ANY;+0%;+0%;;;FALSE;TRUE;0.0;0.0;1;0.000000;0.500000;;;;;;;;;;;PV_TABLE_CURVE | YMAX-X;EO-01 | ENTRY;Subtraction;;;;0.000;0.0000;;;
EO-03;CALC;ABSOLUTE;ABSOLUTE;10.518;;1.3638;;NONE;NONE;ANY;+0%;+0%;;;FALSE;TRUE;0.0;0.0;1;0.000000;1.000000;;;;;;;;;;;PV_TABLE_CURVE | YMAX-Y;PV_TABLE_CURVE | YMIN-Y;Subtraction;;;;0.000;0.0000;;;
EO-04;OFF
EO-05;OFF
EO-06;OFF
EO-07;OFF
EO-08;OFF
EO-09;OFF
EO-10;OFF



















Switch signal settings;Channel;Threshold at;;Trigger from;Reference;Latch until
Type S1;X;10.370;mm;LEFT;ABSOLUTE;None
Type S2;OFF

















Device information
Device type;maXYmos TL
Device type number;5877A0
Device serial number;4915792
Firmware version;1.1.12 (r21150-TL_v1.1.x)
-
-
-
-
-
IP Address;192.168.21.20
Network name;Maxymos 2
Profibus address;10
-
-
-
Station name;Maxymos 2
Company name;
Comment;











Channel-X settings
Use the settings from global setup;True
Sensor-X type;Potentiometer
Unit;mm
Used range from;8.000;mm
Used range to;12.000;mm
Decimal places;XXX.XXX
Scaling by;Teach-In
Point 1;-0.380;mm;16.488;%
Point 2;72.105;mm;72.105;%
Invert signal;FALSE
Filter;OFF
Test point;0.000;mm
Tolerance;0.010;mm
Enable sensor test by dig-input;FALSE
Zoom from;0.000;mm
Zoom to;100.000;mm
Master Measurement Enable;FALSE
Master Measurement Nominal Position;0.000;mm
Encoder interpolation factor;-
Encoder electrical interface;-
Encoder referencing type;-
Encoder referencing edge;-
Encoder pulses per minute;-
Encoder use every nth-mark;-
Reference;-
Encoder reference points;-
Encoder coding;-
Encoder width;-
Encoder optimization;-
Encoder clock frequency;-
Termination resistor;-








Channel-Y settings
Use the settings from global setup;True
Sensor-Y type;Â±10V
Unit;RMS
Used range from;0.0000;RMS
Used range to;10.0000;RMS
Decimal places;XX.XXXX
Scaling by;Calibration Sheet
Sensitivity;1000.0000;RMS;-4.000;mV/V
Zero point;0.0000;RMS;0.000;mV/V
Invert signal;FALSE
Filter;OFF
Piezo reset;-
Test point;0.0000;RMS
Tolerance;0.0000;RMS
Enable sensor test by dig-input;FALSE
Zoom from;0.0000;RMS
Zoom to;1000.0000;RMS












Cycle control settings
Use the settings from global setup;True
Measuring function;Y (X)
Delta-X;User-Defined;0.00500;mm
START condition;Threshold-X;7.500;mm;Trigger from;LEFT
STOP condition;Threshold-X;12.000;mm;Trigger from;LEFT
Cycle time out;2.00;s
Turning point RIGHT;YMAX
Turning point LEFT;NONE
Cut curve at;NONE










Evaluation settings
Capture only first NOK-EO for statistics;False
Hysteresis X;0.0;%
Hysteresis Y;0.0;%






Trigger Y settings
Threshold at;1.2839;RMS
Value X at TRIGGER Y;0.000;mm
Approach from;BELOW






Block settings
Value X at block;XMAX
Block at;0.000;mm







Measuring curve
Number of measuring points;729
Ref. Graph on;ABSOLUTE
Curve segments;0;136;135;729;


Time;X(ABSOLUTE);Y;X (ABSOLUTE)


s;mm;RMS;mm
0.0000;7.66661;0.03266;7.66661
0.0003;7.67750;0.03218;7.67750
0.0006;7.68300;0.03181;7.68300
0.0008;7.69015;0.03149;7.69015
0.0009;7.69648;0.03141;7.69648
0.0011;7.70164;0.03120;7.70164
0.0012;7.70699;0.03116;7.70699
0.0013;7.71405;0.03105;7.71405
0.0015;7.72020;0.03057;7.72020
0.0016;7.72602;0.03064;7.72602
0.0017;7.73113;0.03079;7.73113
0.0022;7.73638;0.03187;7.73638
0.0023;7.74307;0.03238;7.74307
0.0024;7.75056;0.03245;7.75056
0.0025;7.75584;0.03267;7.75584
0.0027;7.76084;0.03284;7.76084
0.0029;7.76772;0.03301;7.76772
0.0033;7.77360;0.03340;7.77360
0.0035;7.77909;0.03358;7.77909
0.0037;7.78536;0.03364;7.78536
0.0040;7.79129;0.03361;7.79129
0.0043;7.79639;0.03355;7.79639
0.0044;7.80189;0.03360;7.80189
0.0047;7.80725;0.03363;7.80725
0.0050;7.81285;0.03425;7.81285
0.0057;7.81864;0.03596;7.81864
0.0062;7.82422;0.03657;7.82422
0.0068;7.82933;0.03693;7.82933
0.0074;7.83604;0.03691;7.83604
0.0083;7.84171;0.03654;7.84171
0.0085;7.84716;0.03653;7.84716
0.0088;7.85248;0.03637;7.85248
0.0092;7.85778;0.03621;7.85778
0.0094;7.86316;0.03596;7.86316
0.0097;7.86850;0.03566;7.86850
0.0100;7.87407;0.03552;7.87407
0.0103;7.87973;0.03540;7.87973
0.0108;7.88516;0.03491;7.88516
0.0109;7.89074;0.03485;7.89074
0.0111;7.89575;0.03457;7.89575
0.0117;7.90162;0.03401;7.90162
0.0120;7.90742;0.03389;7.90742
0.0122;7.91381;0.03363;7.91381
0.0124;7.92042;0.03348;7.92042
0.0125;7.92733;0.03326;7.92733
0.0127;7.93476;0.03343;7.93476
0.0128;7.93981;0.03302;7.93981
0.0130;7.94489;0.03274;7.94489
0.0131;7.95039;0.03263;7.95039
0.0133;7.95566;0.03225;7.95566
0.0136;7.96068;0.03194;7.96068
0.0139;7.96617;0.03134;7.96617
0.0140;7.97215;0.03121;7.97215
0.0142;7.97893;0.03079;7.97893
0.0144;7.98426;0.03062;7.98426
0.0146;7.98936;0.03039;7.98936
0.0148;7.99476;0.02992;7.99476
0.0150;8.00064;0.02976;8.00064
0.0151;8.00587;0.02973;8.00587
0.0152;8.01158;0.02962;8.01158
0.0155;8.01920;0.02925;8.01920
0.0156;8.02427;0.02921;8.02427
0.0158;8.03097;0.02878;8.03097
0.0160;8.03698;0.02857;8.03698
0.0162;8.04309;0.02829;8.04309
0.0163;8.04998;0.02823;8.04998
0.0165;8.05526;0.02805;8.05526
0.0166;8.06066;0.02779;8.06066
0.0169;8.06625;0.02735;8.06625
0.0170;8.07259;0.02724;8.07259
0.0172;8.07816;0.02718;8.07816
0.0174;8.08491;0.02697;8.08491
0.0175;8.09067;0.02683;8.09067
0.0177;8.09745;0.02687;8.09745
0.0179;8.10305;0.02663;8.10305
0.0181;8.10833;0.02631;8.10833
0.0183;8.11362;0.02634;8.11362
0.0184;8.11877;0.02612;8.11877
0.0188;8.12384;0.02601;8.12384
0.0190;8.12998;0.02594;8.12998
0.0192;8.13556;0.02582;8.13556
0.0193;8.14330;0.02570;8.14330
0.0194;8.15026;0.02586;8.15026
0.0195;8.15742;0.02565;8.15742
0.0196;8.16516;0.02562;8.16516
0.0198;8.17365;0.02566;8.17365
0.0199;8.17892;0.02574;8.17892
0.0200;8.18477;0.02564;8.18477
0.0202;8.19047;0.02566;8.19047
0.0203;8.19642;0.02572;8.19642
0.0204;8.20277;0.02562;8.20277
0.0207;8.20785;0.02563;8.20785
0.0209;8.21352;0.02789;8.21352
0.0211;8.21739;0.05473;8.21739
0.0212;8.21921;0.07879;8.21921
0.0213;8.22180;0.10384;8.22180
0.0214;8.22530;0.12847;8.22530
0.0215;8.22714;0.15223;8.22714
0.0216;8.23149;0.17548;8.23149
0.0216;8.23884;0.19780;8.23884
0.0217;8.24541;0.21903;8.24541
0.0218;8.25292;0.23981;8.25292
0.0219;8.25908;0.26002;8.25908
0.0220;8.26985;0.28064;8.26985
0.0221;8.27617;0.30287;8.27617
0.0222;8.28347;0.32548;8.28347
0.0223;8.28676;0.34822;8.28676
0.0224;8.29282;0.37067;8.29282
0.0225;8.29834;0.39227;8.29834
0.0226;8.30588;0.41295;8.30588
0.0227;8.31476;0.43240;8.31476
0.0228;8.32300;0.45077;8.32300
0.0229;8.33227;0.46800;8.33227
0.0230;8.33901;0.49185;8.33901
0.0232;8.34128;0.51321;8.34128
0.0233;8.35242;0.53250;8.35242
0.0234;8.35846;0.53853;8.35846
0.0234;8.36475;0.54404;8.36475
0.0235;8.36983;0.54943;8.36983
0.0236;8.37877;0.55984;8.37877
0.0237;8.38644;0.56935;8.38644
0.0238;8.39411;0.57808;8.39411
0.0239;8.40000;0.58604;8.40000
0.0240;8.40617;0.59328;8.40617
0.0241;8.41134;0.60554;8.41134
0.0243;8.41673;0.61298;8.41673
0.0244;8.42437;0.61719;8.42437
0.0244;8.42968;0.61907;8.42968
0.0245;8.43556;0.62086;8.43556
0.0246;8.44497;0.62405;8.44497
0.0247;8.45290;0.62668;8.45290
0.0248;8.45880;0.62891;8.45880
0.0249;8.46477;0.63064;8.46477
0.0250;8.47115;0.63174;8.47115
0.0251;8.47843;0.63283;8.47843
0.0252;8.48564;0.63320;8.48564
0.0254;8.49148;0.63265;8.49148
0.0255;8.49935;0.63174;8.49935
0.0256;8.50539;0.63081;8.50539
0.0257;8.51362;0.62860;8.51362
0.0259;8.52106;0.62600;8.52106
0.0260;8.52712;0.62395;8.52712
0.0261;8.53380;0.62156;8.53380
0.0262;8.53979;0.61913;8.53979
0.0263;8.54673;0.61497;8.54673
0.0265;8.55445;0.60885;8.55445
0.0266;8.55948;0.60531;8.55948
0.0267;8.56506;0.60009;8.56506
0.0269;8.57156;0.59457;8.57156
0.0270;8.57712;0.58866;8.57712
0.0272;8.58460;0.58271;8.58460
0.0273;8.59146;0.57632;8.59146
0.0275;8.59812;0.56992;8.59812
0.0276;8.60505;0.56101;8.60505
0.0280;8.61048;0.54490;8.61048
0.0284;8.61551;0.52585;8.61551
0.0286;8.62095;0.51615;8.62095
0.0288;8.62719;0.50173;8.62719
0.0290;8.63231;0.49190;8.63231
0.0294;8.63752;0.47493;8.63752
0.0298;8.64283;0.45323;8.64283
0.0302;8.64700;0.43186;8.64700
0.0307;8.64899;0.41107;8.64899
0.0311;8.65020;0.39103;8.65020
0.0316;8.65462;0.36915;8.65462
0.0321;8.65471;0.34879;8.65471
0.0324;8.66002;0.33670;8.66002
0.0326;8.66526;0.32708;8.66526
0.0331;8.67037;0.30695;8.67037
0.0335;8.67598;0.29310;8.67598
0.0338;8.68209;0.28138;8.68209
0.0340;8.68836;0.27491;8.68836
0.0342;8.69387;0.26856;8.69387
0.0343;8.69964;0.26534;8.69964
0.0344;8.70585;0.26251;8.70585
0.0345;8.71175;0.25950;8.71175
0.0346;8.71840;0.25651;8.71840
0.0347;8.72497;0.25357;8.72497
0.0348;8.73148;0.25068;8.73148
0.0349;8.73673;0.24770;8.73673
0.0350;8.74299;0.24489;8.74299
0.0351;8.74905;0.24213;8.74905
0.0352;8.75488;0.23793;8.75488
0.0354;8.76172;0.23393;8.76172
0.0357;8.76881;0.22604;8.76881
0.0358;8.77565;0.22345;8.77565
0.0360;8.78091;0.21860;8.78091
0.0361;8.78771;0.21493;8.78771
0.0362;8.79341;0.21231;8.79341
0.0363;8.80035;0.20905;8.80035
0.0364;8.80660;0.20666;8.80660
0.0365;8.81337;0.20448;8.81337
0.0367;8.81883;0.20114;8.81883
0.0368;8.82488;0.19885;8.82488
0.0369;8.83121;0.19654;8.83121
0.0370;8.83655;0.19443;8.83655
0.0371;8.84196;0.19125;8.84196
0.0373;8.84828;0.18610;8.84828
0.0376;8.85366;0.18003;8.85366
0.0378;8.86027;0.17720;8.86027
0.0379;8.86653;0.17412;8.86653
0.0380;8.87314;0.17243;8.87314
0.0381;8.88035;0.17066;8.88035
0.0383;8.88785;0.16776;8.88785
0.0384;8.89425;0.16542;8.89425
0.0385;8.90034;0.16369;8.90034
0.0386;8.90609;0.16102;8.90609
0.0387;8.91147;0.15936;8.91147
0.0389;8.91724;0.15699;8.91724
0.0391;8.92293;0.15361;8.92293
0.0393;8.92941;0.14957;8.92941
0.0396;8.93796;0.14404;8.93796
0.0397;8.94622;0.14257;8.94622
0.0398;8.95411;0.14084;8.95411
0.0399;8.96106;0.13963;8.96106
0.0400;8.96821;0.13814;8.96821
0.0402;8.97431;0.13605;8.97431
0.0403;8.98007;0.13389;8.98007
0.0405;8.98589;0.13180;8.98589
0.0407;8.99211;0.12846;8.99211
0.0409;8.99772;0.12559;8.99772
0.0411;9.00465;0.12299;9.00465
0.0414;9.00994;0.11911;9.00994
0.0416;9.01588;0.11677;9.01588
0.0417;9.02157;0.11493;9.02157
0.0419;9.02761;0.11255;9.02761
0.0420;9.03422;0.11081;9.03422
0.0423;9.03935;0.10747;9.03935
0.0424;9.04453;0.10627;9.04453
0.0425;9.05029;0.10535;9.05029
0.0427;9.05594;0.10372;9.05594
0.0429;9.06226;0.10158;9.06226
0.0431;9.06832;0.09913;9.06832
0.0432;9.07465;0.09774;9.07465
0.0435;9.08082;0.09513;9.08082
0.0438;9.08626;0.09217;9.08626
0.0441;9.09246;0.08912;9.09246
0.0444;9.09818;0.08692;9.09818
0.0446;9.10471;0.08485;9.10471
0.0451;9.11206;0.08079;9.11206
0.0452;9.11892;0.07964;9.11892
0.0454;9.12530;0.07860;9.12530
0.0455;9.13182;0.07769;9.13182
0.0456;9.13781;0.07669;9.13781
0.0458;9.14358;0.07501;9.14358
0.0459;9.15111;0.07403;9.15111
0.0461;9.15635;0.07310;9.15635
0.0462;9.16141;0.07195;9.16141
0.0464;9.16921;0.07094;9.16921
0.0466;9.17694;0.06978;9.17694
0.0468;9.18333;0.06846;9.18333
0.0470;9.18946;0.06707;9.18946
0.0473;9.19590;0.06506;9.19590
0.0475;9.20199;0.06442;9.20199
0.0476;9.20703;0.06371;9.20703
0.0478;9.21292;0.06291;9.21292
0.0480;9.21870;0.06205;9.21870
0.0482;9.22530;0.06122;9.22530
0.0483;9.23351;0.06056;9.23351
0.0484;9.24094;0.06013;9.24094
0.0486;9.24740;0.05944;9.24740
0.0488;9.25397;0.05878;9.25397
0.0490;9.25906;0.05837;9.25906
0.0492;9.26460;0.05766;9.26460
0.0492;9.26991;0.05724;9.26991
0.0495;9.27691;0.05622;9.27691
0.0498;9.28401;0.05531;9.28401
0.0501;9.28903;0.05458;9.28903
0.0502;9.29422;0.05387;9.29422
0.0504;9.30116;0.05338;9.30116
0.0507;9.30705;0.05243;9.30705
0.0509;9.31348;0.05190;9.31348
0.0511;9.31993;0.05139;9.31993
0.0513;9.32698;0.05064;9.32698
0.0516;9.33249;0.04997;9.33249
0.0517;9.33881;0.04952;9.33881
0.0520;9.34503;0.04896;9.34503
0.0522;9.35102;0.04850;9.35102
0.0524;9.35821;0.04784;9.35821
0.0526;9.36413;0.04727;9.36413
0.0528;9.37035;0.04671;9.37035
0.0530;9.37686;0.04610;9.37686
0.0532;9.38453;0.04568;9.38453
0.0535;9.39123;0.04505;9.39123
0.0537;9.39925;0.04465;9.39925
0.0538;9.40480;0.04449;9.40480
0.0540;9.41018;0.04394;9.41018
0.0542;9.41640;0.04348;9.41640
0.0543;9.42312;0.04302;9.42312
0.0546;9.42884;0.04258;9.42884
0.0549;9.43409;0.04205;9.43409
0.0551;9.43972;0.04155;9.43972
0.0552;9.44569;0.04126;9.44569
0.0555;9.45119;0.04072;9.45119
0.0556;9.45757;0.04048;9.45757
0.0558;9.46342;0.04016;9.46342
0.0559;9.46878;0.04001;9.46878
0.0560;9.47393;0.03975;9.47393
0.0563;9.48100;0.03935;9.48100
0.0565;9.48630;0.03881;9.48630
0.0567;9.49143;0.03836;9.49143
0.0569;9.49845;0.03785;9.49845
0.0572;9.50370;0.03731;9.50370
0.0574;9.50971;0.03703;9.50971
0.0576;9.51669;0.03637;9.51669
0.0578;9.52349;0.03581;9.52349
0.0580;9.52875;0.03536;9.52875
0.0582;9.53579;0.03496;9.53579
0.0585;9.54106;0.03457;9.54106
0.0588;9.54685;0.03386;9.54685
0.0590;9.55220;0.03375;9.55220
0.0592;9.55750;0.03312;9.55750
0.0594;9.56259;0.03303;9.56259
0.0596;9.57043;0.03263;9.57043
0.0597;9.57691;0.03242;9.57691
0.0599;9.58278;0.03210;9.58278
0.0600;9.58926;0.03199;9.58926
0.0601;9.59446;0.03172;9.59446
0.0603;9.59960;0.03133;9.59960
0.0605;9.60567;0.03093;9.60567
0.0609;9.61209;0.03053;9.61209
0.0611;9.61729;0.03017;9.61729
0.0614;9.62308;0.02969;9.62308
0.0618;9.62903;0.02941;9.62903
0.0619;9.63611;0.02922;9.63611
0.0620;9.64141;0.02926;9.64141
0.0623;9.64835;0.02918;9.64835
0.0624;9.65496;0.02893;9.65496
0.0625;9.66048;0.02885;9.66048
0.0626;9.66627;0.02892;9.66627
0.0628;9.67189;0.02869;9.67189
0.0630;9.67717;0.02852;9.67717
0.0632;9.68229;0.02852;9.68229
0.0633;9.68750;0.02845;9.68750
0.0634;9.69551;0.02839;9.69551
0.0635;9.70069;0.02828;9.70069
0.0637;9.70609;0.02818;9.70609
0.0639;9.71267;0.02829;9.71267
0.0641;9.71776;0.02812;9.71776
0.0642;9.72307;0.02804;9.72307
0.0643;9.72841;0.02814;9.72841
0.0644;9.73531;0.02792;9.73531
0.0645;9.74214;0.02793;9.74214
0.0647;9.74886;0.02804;9.74886
0.0648;9.75543;0.02780;9.75543
0.0650;9.76054;0.02770;9.76054
0.0652;9.76701;0.02781;9.76701
0.0654;9.77392;0.02758;9.77392
0.0656;9.77987;0.02769;9.77987
0.0659;9.78684;0.02756;9.78684
0.0660;9.79353;0.02761;9.79353
0.0663;9.80000;0.02767;9.80000
0.0664;9.80649;0.02776;9.80649
0.0666;9.81327;0.02788;9.81327
0.0667;9.81868;0.02785;9.81868
0.0668;9.82552;0.02782;9.82552
0.0670;9.83169;0.02786;9.83169
0.0673;9.83764;0.02787;9.83764
0.0676;9.84287;0.02807;9.84287
0.0678;9.84978;0.02810;9.84978
0.0680;9.85486;0.02817;9.85486
0.0682;9.86126;0.02817;9.86126
0.0684;9.86729;0.02818;9.86729
0.0686;9.87290;0.02841;9.87290
0.0689;9.87842;0.02849;9.87842
0.0690;9.88509;0.02853;9.88509
0.0691;9.89110;0.02850;9.89110
0.0694;9.89654;0.02848;9.89654
0.0695;9.90168;0.02858;9.90168
0.0697;9.90751;0.02839;9.90751
0.0700;9.91444;0.02855;9.91444
0.0705;9.91975;0.02857;9.91975
0.0707;9.92590;0.02874;9.92590
0.0709;9.93229;0.02861;9.93229
0.0711;9.93955;0.02868;9.93955
0.0713;9.94627;0.02889;9.94627
0.0715;9.95340;0.02891;9.95340
0.0716;9.96034;0.02894;9.96034
0.0719;9.96568;0.02898;9.96568
0.0721;9.97130;0.02889;9.97130
0.0722;9.97738;0.02888;9.97738
0.0723;9.98352;0.02896;9.98352
0.0726;9.98976;0.02909;9.98976
0.0728;9.99580;0.02903;9.99580
0.0731;10.00158;0.02903;10.00158
0.0734;10.00753;0.02870;10.00753
0.0736;10.01367;0.02875;10.01367
0.0738;10.02017;0.02873;10.02017
0.0739;10.02631;0.02860;10.02631
0.0742;10.03327;0.02847;10.03327
0.0743;10.03891;0.02841;10.03891
0.0745;10.04594;0.02837;10.04594
0.0746;10.05201;0.02833;10.05201
0.0747;10.05711;0.02825;10.05711
0.0748;10.06252;0.02819;10.06252
0.0749;10.06830;0.02823;10.06830
0.0751;10.07344;0.02836;10.07344
0.0752;10.07996;0.02827;10.07996
0.0754;10.08536;0.02829;10.08536
0.0755;10.09184;0.02813;10.09184
0.0757;10.09938;0.02835;10.09938
0.0759;10.10510;0.02795;10.10510
0.0760;10.11156;0.02806;10.11156
0.0762;10.11679;0.02800;10.11679
0.0766;10.12190;0.02796;10.12190
0.0769;10.12727;0.02781;10.12727
0.0773;10.13277;0.02785;10.13277
0.0775;10.13938;0.02770;10.13938
0.0776;10.14551;0.02778;10.14551
0.0777;10.15237;0.02759;10.15237
0.0778;10.15806;0.02772;10.15806
0.0779;10.16422;0.02759;10.16422
0.0780;10.17015;0.02758;10.17015
0.0783;10.17520;0.02739;10.17520
0.0789;10.18026;0.02702;10.18026
0.0790;10.18648;0.02678;10.18648
0.0791;10.19156;0.02694;10.19156
0.0793;10.19693;0.02674;10.19693
0.0796;10.20285;0.02673;10.20285
0.0798;10.20941;0.02657;10.20941
0.0799;10.21626;0.02653;10.21626
0.0802;10.22135;0.02637;10.22135
0.0803;10.22649;0.02654;10.22649
0.0805;10.23274;0.02634;10.23274
0.0807;10.23818;0.02618;10.23818
0.0809;10.24411;0.02624;10.24411
0.0813;10.24998;0.02591;10.24998
0.0815;10.25830;0.02584;10.25830
0.0816;10.26434;0.02568;10.26434
0.0817;10.27102;0.02567;10.27102
0.0819;10.27613;0.02551;10.27613
0.0822;10.28160;0.02525;10.28160
0.0824;10.28661;0.02529;10.28661
0.0826;10.29225;0.02495;10.29225
0.0829;10.29809;0.02495;10.29809
0.0832;10.30628;0.02474;10.30628
0.0834;10.31200;0.02453;10.31200
0.0837;10.31836;0.02467;10.31836
0.0839;10.32472;0.02446;10.32472
0.0841;10.33067;0.02446;10.33067
0.0843;10.33652;0.02430;10.33652
0.0846;10.34253;0.02432;10.34253
0.0847;10.34809;0.02422;10.34809
0.0849;10.35368;0.02423;10.35368
0.0850;10.35954;0.02419;10.35954
0.0851;10.36462;0.02417;10.36462
0.0854;10.37030;0.02408;10.37030
0.0857;10.37544;0.02398;10.37544
0.0859;10.38068;0.02391;10.38068
0.0862;10.38740;0.02378;10.38740
0.0864;10.39432;0.02365;10.39432
0.0866;10.40072;0.02363;10.40072
0.0868;10.40792;0.02366;10.40792
0.0871;10.41611;0.02372;10.41611
0.0873;10.42209;0.02366;10.42209
0.0874;10.42849;0.02365;10.42849
0.0876;10.43708;0.02374;10.43708
0.0878;10.44309;0.02377;10.44309
0.0879;10.44968;0.02365;10.44968
0.0880;10.45617;0.02379;10.45617
0.0882;10.46195;0.02396;10.46195
0.0883;10.46763;0.02402;10.46763
0.0885;10.47384;0.02414;10.47384
0.0887;10.47944;0.02397;10.47944
0.0890;10.48537;0.02423;10.48537
0.0893;10.49155;0.02429;10.49155
0.0895;10.49655;0.02439;10.49655
0.0897;10.50281;0.02455;10.50281
0.0900;10.50814;0.02472;10.50814
0.0904;10.51438;0.02507;10.51438
0.0906;10.51978;0.02507;10.51978
0.0908;10.52555;0.02528;10.52555
0.0910;10.53145;0.02544;10.53145
0.0912;10.53684;0.02550;10.53684
0.0914;10.54331;0.02574;10.54331
0.0916;10.54841;0.02587;10.54841
0.0918;10.55374;0.02600;10.55374
0.0921;10.56173;0.02605;10.56173
0.0923;10.56689;0.02603;10.56689
0.0924;10.57230;0.02609;10.57230
0.0925;10.58001;0.02606;10.58001
0.0927;10.58530;0.02609;10.58530
0.0928;10.59277;0.02630;10.59277
0.0930;10.59854;0.02611;10.59854
0.0932;10.60521;0.02616;10.60521
